#temperature (K)# #Gibbs free energy (kJ / mol)#
100.0 -13067138.5638
110.0 -13067142.6177
120.0 -13067146.8751
130.0 -13067151.3389
140.0 -13067156.0111
150.0 -13067160.8932
160.0 -13067165.9857
170.0 -13067171.2888
180.0 -13067176.8023
190.0 -13067182.5256
200.0 -13067188.4578
210.0 -13067194.5976
220.0 -13067200.9437
230.0 -13067207.4945
240.0 -13067214.2483
250.0 -13067221.2031
260.0 -13067228.3569
270.0 -13067235.7077
280.0 -13067243.2532
290.0 -13067250.9912
300.0 -13067258.9194
310.0 -13067267.0355
320.0 -13067275.3371
330.0 -13067283.8218
340.0 -13067292.4872
350.0 -13067301.331
360.0 -13067310.3506
370.0 -13067319.5438
380.0 -13067328.9081
390.0 -13067338.4413
400.0 -13067348.1409
410.0 -13067358.0047
420.0 -13067368.0303
430.0 -13067378.2157
440.0 -13067388.5584
450.0 -13067399.0564
460.0 -13067409.7075
470.0 -13067420.5096
480.0 -13067431.4606
490.0 -13067442.5585
500.0 -13067453.8012
510.0 -13067465.1869
520.0 -13067476.7136
530.0 -13067488.3793
540.0 -13067500.1823
550.0 -13067512.1208
560.0 -13067524.1929
570.0 -13067536.3969
580.0 -13067548.7311
590.0 -13067561.1938
600.0 -13067573.7834
610.0 -13067586.4983
620.0 -13067599.3369
630.0 -13067612.2976
640.0 -13067625.379
650.0 -13067638.5796
660.0 -13067651.8979
670.0 -13067665.3325
680.0 -13067678.882
690.0 -13067692.5451
700.0 -13067706.3204
710.0 -13067720.2067
720.0 -13067734.2025
730.0 -13067748.3068
740.0 -13067762.5181
750.0 -13067776.8355
760.0 -13067791.2576
770.0 -13067805.7832
780.0 -13067820.4114
790.0 -13067835.1409
800.0 -13067849.9707
810.0 -13067864.8997
820.0 -13067879.9268
830.0 -13067895.051
840.0 -13067910.2713
850.0 -13067925.5867
860.0 -13067940.9963
870.0 -13067956.499
880.0 -13067972.094
890.0 -13067987.7803
900.0 -13068003.557
910.0 -13068019.4233
920.0 -13068035.3782
930.0 -13068051.421
940.0 -13068067.5507
950.0 -13068083.7665
960.0 -13068100.0677
970.0 -13068116.4534
980.0 -13068132.9229
990.0 -13068149.4753
1000.0 -13068166.11
1010.0 -13068182.8262
1020.0 -13068199.6231
1030.0 -13068216.5001
1040.0 -13068233.4564
1050.0 -13068250.4914
1060.0 -13068267.6042
1070.0 -13068284.7944
1080.0 -13068302.0612
1090.0 -13068319.404
1100.0 -13068336.8221
1110.0 -13068354.3149
1120.0 -13068371.8818
1130.0 -13068389.5222
1140.0 -13068407.2354
1150.0 -13068425.0209
1160.0 -13068442.8781
1170.0 -13068460.8065
1180.0 -13068478.8054
1190.0 -13068496.8743
1200.0 -13068515.0127
1210.0 -13068533.22
1220.0 -13068551.4957
1230.0 -13068569.8392
1240.0 -13068588.2501
1250.0 -13068606.7279
1260.0 -13068625.272
1270.0 -13068643.8819
1280.0 -13068662.5572
1290.0 -13068681.2974
1300.0 -13068700.102
1310.0 -13068718.9705
1320.0 -13068737.9025
1330.0 -13068756.8975
1340.0 -13068775.9551
1350.0 -13068795.0749
1360.0 -13068814.2563
1370.0 -13068833.4991
1380.0 -13068852.8026
1390.0 -13068872.1667
1400.0 -13068891.5907
1410.0 -13068911.0743
1420.0 -13068930.6172
1430.0 -13068950.2189
1440.0 -13068969.879
1450.0 -13068989.5971
1460.0 -13069009.3729
1470.0 -13069029.206
1480.0 -13069049.096
1490.0 -13069069.0425
1500.0 -13069089.0452
1510.0 -13069109.1038
1520.0 -13069129.2178
1530.0 -13069149.3869
1540.0 -13069169.6108
1550.0 -13069189.8891
1560.0 -13069210.2216
1570.0 -13069230.6078
1580.0 -13069251.0474
1590.0 -13069271.5401
1600.0 -13069292.0857
1610.0 -13069312.6837
1620.0 -13069333.3338
1630.0 -13069354.0359
1640.0 -13069374.7894
1650.0 -13069395.5942
1660.0 -13069416.45
1670.0 -13069437.3564
1680.0 -13069458.3131
1690.0 -13069479.32
1700.0 -13069500.3766
1710.0 -13069521.4827
1720.0 -13069542.638
1730.0 -13069563.8422
1740.0 -13069585.0952
1750.0 -13069606.3965
1760.0 -13069627.746
1770.0 -13069649.1433
1780.0 -13069670.5882
1790.0 -13069692.0805
1800.0 -13069713.6199
1810.0 -13069735.2061
1820.0 -13069756.8388
1830.0 -13069778.518
1840.0 -13069800.2432
1850.0 -13069822.0143
1860.0 -13069843.8309
1870.0 -13069865.693
1880.0 -13069887.6001
1890.0 -13069909.5522
1900.0 -13069931.549
1910.0 -13069953.5902
1920.0 -13069975.6756
1930.0 -13069997.805
1940.0 -13070019.9781
1950.0 -13070042.1948
1960.0 -13070064.4549
1970.0 -13070086.7581
1980.0 -13070109.1041
1990.0 -13070131.4929
2000.0 -13070153.9241
2010.0 -13070176.3977
2020.0 -13070198.9133
2030.0 -13070221.4707
2040.0 -13070244.0699
2050.0 -13070266.7105
2060.0 -13070289.3924
2070.0 -13070312.1153
2080.0 -13070334.8791
2090.0 -13070357.6837
2100.0 -13070380.5287
2110.0 -13070403.414
2120.0 -13070426.3395
2130.0 -13070449.3049
2140.0 -13070472.31
2150.0 -13070495.3548
2160.0 -13070518.4389
2170.0 -13070541.5622
2180.0 -13070564.7246
2190.0 -13070587.9259
2200.0 -13070611.1658
2210.0 -13070634.4443
2220.0 -13070657.7611
2230.0 -13070681.116
2240.0 -13070704.509
2250.0 -13070727.9399
2260.0 -13070751.4084
2270.0 -13070774.9144
2280.0 -13070798.4578
2290.0 -13070822.0384
2300.0 -13070845.656
2310.0 -13070869.3105
2320.0 -13070893.0017
2330.0 -13070916.7295
2340.0 -13070940.4937
2350.0 -13070964.2941
2360.0 -13070988.1307
2370.0 -13071012.0032
2380.0 -13071035.9115
2390.0 -13071059.8555
2400.0 -13071083.8349
2410.0 -13071107.8498
2420.0 -13071131.8999
2430.0 -13071155.985
2440.0 -13071180.1051
2450.0 -13071204.26
2460.0 -13071228.4496
2470.0 -13071252.6737
2480.0 -13071276.9321
2490.0 -13071301.2248
2500.0 -13071325.5516
2510.0 -13071349.9124
2520.0 -13071374.3071
2530.0 -13071398.7354
2540.0 -13071423.1973
2550.0 -13071447.6927
2560.0 -13071472.2214
2570.0 -13071496.7833
2580.0 -13071521.3782
2590.0 -13071546.0061
2600.0 -13071570.6668
2610.0 -13071595.3602
2620.0 -13071620.0862
2630.0 -13071644.8446
2640.0 -13071669.6353
2650.0 -13071694.4583
2660.0 -13071719.3133
2670.0 -13071744.2002
2680.0 -13071769.1191
2690.0 -13071794.0696
2700.0 -13071819.0518
2710.0 -13071844.0654
2720.0 -13071869.1105
2730.0 -13071894.1868
2740.0 -13071919.2942
2750.0 -13071944.4327
2760.0 -13071969.6022
2770.0 -13071994.8024
2780.0 -13072020.0334
2790.0 -13072045.295
2800.0 -13072070.587
2810.0 -13072095.9095
2820.0 -13072121.2622
2830.0 -13072146.6451
2840.0 -13072172.0581
2850.0 -13072197.501
2860.0 -13072222.9738
2870.0 -13072248.4764
2880.0 -13072274.0086
2890.0 -13072299.5703
2900.0 -13072325.1615
2910.0 -13072350.7821
2920.0 -13072376.4319
2930.0 -13072402.1109
2940.0 -13072427.8189
2950.0 -13072453.5559
2960.0 -13072479.3217
2970.0 -13072505.1163
2980.0 -13072530.9396
2990.0 -13072556.7914
3000.0 -13072582.6717
3010.0 -13072608.5805
3020.0 -13072634.5174
3030.0 -13072660.4826
3040.0 -13072686.4759
