#temperature (K)# #Gibbs free energy (kJ / mol)#
100.0 -5062319.00281
110.0 -5062322.06026
120.0 -5062325.20732
130.0 -5062328.44502
140.0 -5062331.7743
150.0 -5062335.19593
160.0 -5062338.71045
170.0 -5062342.31818
180.0 -5062346.01922
190.0 -5062349.81341
200.0 -5062353.70045
210.0 -5062357.6798
220.0 -5062361.7508
230.0 -5062365.91264
240.0 -5062370.16439
250.0 -5062374.50503
260.0 -5062378.93346
270.0 -5062383.44853
280.0 -5062388.04902
290.0 -5062392.73371
300.0 -5062397.50132
310.0 -5062402.35058
320.0 -5062407.2802
330.0 -5062412.2889
340.0 -5062417.37539
350.0 -5062422.53841
360.0 -5062427.77669
370.0 -5062433.08898
380.0 -5062438.47407
390.0 -5062443.93075
400.0 -5062449.45784
410.0 -5062455.05416
420.0 -5062460.7186
430.0 -5062466.45003
440.0 -5062472.24736
450.0 -5062478.10952
460.0 -5062484.03549
470.0 -5062490.02424
480.0 -5062496.07478
490.0 -5062502.18614
500.0 -5062508.35737
510.0 -5062514.58757
520.0 -5062520.87582
530.0 -5062527.22125
540.0 -5062533.62301
550.0 -5062540.08026
560.0 -5062546.59219
570.0 -5062553.158
580.0 -5062559.77693
590.0 -5062566.44822
600.0 -5062573.17112
610.0 -5062579.94493
620.0 -5062586.76894
630.0 -5062593.64247
640.0 -5062600.56485
650.0 -5062607.53543
660.0 -5062614.55358
670.0 -5062621.61867
680.0 -5062628.73009
690.0 -5062635.88726
700.0 -5062643.08959
710.0 -5062650.33653
720.0 -5062657.62751
730.0 -5062664.962
740.0 -5062672.33947
750.0 -5062679.7594
760.0 -5062687.22129
770.0 -5062694.72464
780.0 -5062702.26898
790.0 -5062709.85383
800.0 -5062717.47873
810.0 -5062725.14322
820.0 -5062732.84686
830.0 -5062740.58922
840.0 -5062748.36987
850.0 -5062756.1884
860.0 -5062764.0444
870.0 -5062771.93747
880.0 -5062779.86722
890.0 -5062787.83326
900.0 -5062795.83523
910.0 -5062803.87274
920.0 -5062811.94545
930.0 -5062820.05298
940.0 -5062828.19501
950.0 -5062836.37118
960.0 -5062844.58117
970.0 -5062852.82463
980.0 -5062861.10126
990.0 -5062869.41073
1000.0 -5062877.75274
1010.0 -5062886.12697
1020.0 -5062894.53313
1030.0 -5062902.97093
1040.0 -5062911.44007
1050.0 -5062919.94028
1060.0 -5062928.47127
1070.0 -5062937.03276
1080.0 -5062945.62449
1090.0 -5062954.2462
1100.0 -5062962.89762
1110.0 -5062971.5785
1120.0 -5062980.28858
1130.0 -5062989.02762
1140.0 -5062997.79538
1150.0 -5063006.5916
1160.0 -5063015.41607
1170.0 -5063024.26854
1180.0 -5063033.14879
1190.0 -5063042.05659
1200.0 -5063050.99173
1210.0 -5063059.95398
1220.0 -5063068.94312
1230.0 -5063077.95896
1240.0 -5063087.00127
1250.0 -5063096.06986
1260.0 -5063105.16453
1270.0 -5063114.28507
1280.0 -5063123.43128
1290.0 -5063132.60299
1300.0 -5063141.79999
1310.0 -5063151.0221
1320.0 -5063160.26913
1330.0 -5063169.5409
1340.0 -5063178.83724
1350.0 -5063188.15797
1360.0 -5063197.5029
1370.0 -5063206.87187
1380.0 -5063216.26472
1390.0 -5063225.68126
1400.0 -5063235.12135
1410.0 -5063244.58481
1420.0 -5063254.07148
1430.0 -5063263.58121
1440.0 -5063273.11384
1450.0 -5063282.66922
1460.0 -5063292.24718
1470.0 -5063301.8476
1480.0 -5063311.4703
1490.0 -5063321.11516
1500.0 -5063330.78202
1510.0 -5063340.47074
1520.0 -5063350.18118
1530.0 -5063359.91321
1540.0 -5063369.66668
1550.0 -5063379.44146
1560.0 -5063389.23741
1570.0 -5063399.05441
1580.0 -5063408.89232
1590.0 -5063418.75102
1600.0 -5063428.63037
1610.0 -5063438.53025
1620.0 -5063448.45053
1630.0 -5063458.3911
1640.0 -5063468.35183
1650.0 -5063478.3326
1660.0 -5063488.3333
1670.0 -5063498.3538
1680.0 -5063508.39399
1690.0 -5063518.45375
1700.0 -5063528.53298
1710.0 -5063538.63155
1720.0 -5063548.74937
1730.0 -5063558.88631
1740.0 -5063569.04228
1750.0 -5063579.21716
1760.0 -5063589.41085
1770.0 -5063599.62324
1780.0 -5063609.85424
1790.0 -5063620.10373
1800.0 -5063630.37161
1810.0 -5063640.6578
1820.0 -5063650.96218
1830.0 -5063661.28466
1840.0 -5063671.62514
1850.0 -5063681.98353
1860.0 -5063692.35973
1870.0 -5063702.75365
1880.0 -5063713.16519
1890.0 -5063723.59426
1900.0 -5063734.04078
1910.0 -5063744.50464
1920.0 -5063754.98577
1930.0 -5063765.48407
1940.0 -5063775.99946
1950.0 -5063786.53184
1960.0 -5063797.08114
1970.0 -5063807.64726
1980.0 -5063818.23014
1990.0 -5063828.82967
2000.0 -5063839.44578
2010.0 -5063850.07839
2020.0 -5063860.72741
2030.0 -5063871.39277
2040.0 -5063882.07439
2050.0 -5063892.77219
2060.0 -5063903.48609
2070.0 -5063914.21601
2080.0 -5063924.96188
2090.0 -5063935.72363
2100.0 -5063946.50117
2110.0 -5063957.29443
2120.0 -5063968.10334
2130.0 -5063978.92784
2140.0 -5063989.76783
2150.0 -5064000.62326
2160.0 -5064011.49405
2170.0 -5064022.38014
2180.0 -5064033.28144
2190.0 -5064044.19791
2200.0 -5064055.12945
2210.0 -5064066.07602
2220.0 -5064077.03754
2230.0 -5064088.01394
2240.0 -5064099.00516
2250.0 -5064110.01113
2260.0 -5064121.0318
2270.0 -5064132.06708
2280.0 -5064143.11693
2290.0 -5064154.18128
2300.0 -5064165.26006
2310.0 -5064176.35321
2320.0 -5064187.46068
2330.0 -5064198.5824
2340.0 -5064209.7183
2350.0 -5064220.86834
2360.0 -5064232.03245
2370.0 -5064243.21057
2380.0 -5064254.40264
2390.0 -5064265.60861
2400.0 -5064276.82842
2410.0 -5064288.06201
2420.0 -5064299.30932
2430.0 -5064310.57031
2440.0 -5064321.8449
2450.0 -5064333.13305
2460.0 -5064344.43471
2470.0 -5064355.74981
2480.0 -5064367.07831
2490.0 -5064378.42015
2500.0 -5064389.77528
2510.0 -5064401.14364
2520.0 -5064412.52519
2530.0 -5064423.91987
2540.0 -5064435.32763
2550.0 -5064446.74842
2560.0 -5064458.18218
2570.0 -5064469.62888
2580.0 -5064481.08845
2590.0 -5064492.56085
2600.0 -5064504.04604
2610.0 -5064515.54395
2620.0 -5064527.05455
2630.0 -5064538.57778
2640.0 -5064550.1136
2650.0 -5064561.66196
2660.0 -5064573.22282
2670.0 -5064584.79612
2680.0 -5064596.38182
2690.0 -5064607.97987
2700.0 -5064619.59024
2710.0 -5064631.21287
2720.0 -5064642.84772
2730.0 -5064654.49474
2740.0 -5064666.15389
2750.0 -5064677.82513
2760.0 -5064689.50841
2770.0 -5064701.2037
2780.0 -5064712.91094
2790.0 -5064724.63009
2800.0 -5064736.36112
2810.0 -5064748.10397
2820.0 -5064759.85861
2830.0 -5064771.625
2840.0 -5064783.4031
2850.0 -5064795.19286
2860.0 -5064806.99424
2870.0 -5064818.8072
2880.0 -5064830.63171
2890.0 -5064842.46773
2900.0 -5064854.3152
2910.0 -5064866.17411
2920.0 -5064878.04439
2930.0 -5064889.92603
2940.0 -5064901.81897
2950.0 -5064913.72319
2960.0 -5064925.63863
2970.0 -5064937.56528
2980.0 -5064949.50308
2990.0 -5064961.452
3000.0 -5064973.412
3010.0 -5064985.38305
3020.0 -5064997.36511
3030.0 -5065009.35815
3040.0 -5065021.36212
