#temperature (K)# #Gibbs free energy (kJ / mol)#
100.0 -10503434.1791
110.0 -10503437.2753
120.0 -10503440.4641
130.0 -10503443.7444
140.0 -10503447.1147
150.0 -10503450.5737
160.0 -10503454.12
170.0 -10503457.7521
180.0 -10503461.4687
190.0 -10503465.2683
200.0 -10503469.1497
210.0 -10503473.1114
220.0 -10503477.152
230.0 -10503481.2703
240.0 -10503485.465
250.0 -10503489.7346
260.0 -10503494.0779
270.0 -10503498.4938
280.0 -10503502.9808
290.0 -10503507.5378
300.0 -10503512.1637
310.0 -10503516.8571
320.0 -10503521.617
330.0 -10503526.4423
340.0 -10503531.3317
350.0 -10503536.2843
360.0 -10503541.299
370.0 -10503546.3747
380.0 -10503551.5104
390.0 -10503556.7052
400.0 -10503561.958
410.0 -10503567.268
420.0 -10503572.6341
430.0 -10503578.0556
440.0 -10503583.5315
450.0 -10503589.0609
460.0 -10503594.6431
470.0 -10503600.2772
480.0 -10503605.9624
490.0 -10503611.698
500.0 -10503617.4831
510.0 -10503623.3171
520.0 -10503629.1992
530.0 -10503635.1288
540.0 -10503641.1051
550.0 -10503647.1274
560.0 -10503653.1952
570.0 -10503659.3078
580.0 -10503665.4645
590.0 -10503671.6648
600.0 -10503677.9081
610.0 -10503684.1937
620.0 -10503690.5212
630.0 -10503696.8899
640.0 -10503703.2994
650.0 -10503709.749
660.0 -10503716.2384
670.0 -10503722.7669
680.0 -10503729.3341
690.0 -10503735.9396
700.0 -10503742.5828
710.0 -10503749.2633
720.0 -10503755.9806
730.0 -10503762.7343
740.0 -10503769.524
750.0 -10503776.3492
760.0 -10503783.2096
770.0 -10503790.1047
780.0 -10503797.0341
790.0 -10503803.9975
800.0 -10503810.9945
810.0 -10503818.0247
820.0 -10503825.0877
830.0 -10503832.1832
840.0 -10503839.3109
850.0 -10503846.4703
860.0 -10503853.6612
870.0 -10503860.8833
880.0 -10503868.1361
890.0 -10503875.4195
900.0 -10503882.733
910.0 -10503890.0765
920.0 -10503897.4495
930.0 -10503904.8518
940.0 -10503912.2832
950.0 -10503919.7432
960.0 -10503927.2317
970.0 -10503934.7484
980.0 -10503942.293
990.0 -10503949.8653
1000.0 -10503957.4649
1010.0 -10503965.0917
1020.0 -10503972.7454
1030.0 -10503980.4257
1040.0 -10503988.1325
1050.0 -10503995.8654
1060.0 -10504003.6243
1070.0 -10504011.4088
1080.0 -10504019.2189
1090.0 -10504027.0543
1100.0 -10504034.9147
1110.0 -10504042.7999
1120.0 -10504050.7098
1130.0 -10504058.6441
1140.0 -10504066.6027
1150.0 -10504074.5853
1160.0 -10504082.5917
1170.0 -10504090.6217
1180.0 -10504098.6752
1190.0 -10504106.7519
1200.0 -10504114.8518
1210.0 -10504122.9745
1220.0 -10504131.1199
1230.0 -10504139.2879
1240.0 -10504147.4782
1250.0 -10504155.6907
1260.0 -10504163.9253
1270.0 -10504172.1817
1280.0 -10504180.4598
1290.0 -10504188.7595
1300.0 -10504197.0805
1310.0 -10504205.4228
1320.0 -10504213.7861
1330.0 -10504222.1703
1340.0 -10504230.5753
1350.0 -10504239.0009
1360.0 -10504247.447
1370.0 -10504255.9134
1380.0 -10504264.4
1390.0 -10504272.9066
1400.0 -10504281.4331
1410.0 -10504289.9794
1420.0 -10504298.5454
1430.0 -10504307.1308
1440.0 -10504315.7356
1450.0 -10504324.3597
1460.0 -10504333.0029
1470.0 -10504341.665
1480.0 -10504350.3461
1490.0 -10504359.0458
1500.0 -10504367.7642
1510.0 -10504376.5011
1520.0 -10504385.2564
1530.0 -10504394.0299
1540.0 -10504402.8216
1550.0 -10504411.6313
1560.0 -10504420.459
1570.0 -10504429.3045
1580.0 -10504438.1676
1590.0 -10504447.0484
1600.0 -10504455.9467
1610.0 -10504464.8623
1620.0 -10504473.7952
1630.0 -10504482.7453
1640.0 -10504491.7125
1650.0 -10504500.6966
1660.0 -10504509.6976
1670.0 -10504518.7154
1680.0 -10504527.7499
1690.0 -10504536.8009
1700.0 -10504545.8684
1710.0 -10504554.9524
1720.0 -10504564.0526
1730.0 -10504573.169
1740.0 -10504582.3015
1750.0 -10504591.4501
1760.0 -10504600.6146
1770.0 -10504609.7949
1780.0 -10504618.991
1790.0 -10504628.2028
1800.0 -10504637.4302
1810.0 -10504646.673
1820.0 -10504655.9313
1830.0 -10504665.2049
1840.0 -10504674.4938
1850.0 -10504683.7979
1860.0 -10504693.117
1870.0 -10504702.4512
1880.0 -10504711.8003
1890.0 -10504721.1643
1900.0 -10504730.543
1910.0 -10504739.9365
1920.0 -10504749.3446
1930.0 -10504758.7672
1940.0 -10504768.2043
1950.0 -10504777.6559
1960.0 -10504787.1217
1970.0 -10504796.6019
1980.0 -10504806.0962
1990.0 -10504815.6047
2000.0 -10504825.1272
2010.0 -10504834.6637
2020.0 -10504844.2141
2030.0 -10504853.7784
2040.0 -10504863.3565
2050.0 -10504872.9483
2060.0 -10504882.5537
2070.0 -10504892.1727
2080.0 -10504901.8053
2090.0 -10504911.4513
2100.0 -10504921.1107
2110.0 -10504930.7834
2120.0 -10504940.4694
2130.0 -10504950.1686
2140.0 -10504959.881
2150.0 -10504969.6065
2160.0 -10504979.3449
2170.0 -10504989.0964
2180.0 -10504998.8608
2190.0 -10505008.638
2200.0 -10505018.428
2210.0 -10505028.2308
2220.0 -10505038.0462
2230.0 -10505047.8743
2240.0 -10505057.7149
2250.0 -10505067.5681
2260.0 -10505077.4337
2270.0 -10505087.3117
2280.0 -10505097.2021
2290.0 -10505107.1047
2300.0 -10505117.0197
2310.0 -10505126.9468
2320.0 -10505136.886
2330.0 -10505146.8374
2340.0 -10505156.8008
2350.0 -10505166.7761
2360.0 -10505176.7634
2370.0 -10505186.7626
2380.0 -10505196.7737
2390.0 -10505206.7965
2400.0 -10505216.8311
2410.0 -10505226.8773
2420.0 -10505236.9352
2430.0 -10505247.0047
2440.0 -10505257.0858
2450.0 -10505267.1783
2460.0 -10505277.2824
2470.0 -10505287.3978
2480.0 -10505297.5246
2490.0 -10505307.6627
2500.0 -10505317.8121
2510.0 -10505327.9727
2520.0 -10505338.1445
2530.0 -10505348.3275
2540.0 -10505358.5215
2550.0 -10505368.7266
2560.0 -10505378.9428
2570.0 -10505389.1699
2580.0 -10505399.4079
2590.0 -10505409.6568
2600.0 -10505419.9166
2610.0 -10505430.1872
2620.0 -10505440.4685
2630.0 -10505450.7606
2640.0 -10505461.0633
2650.0 -10505471.3767
2660.0 -10505481.7007
2670.0 -10505492.0352
2680.0 -10505502.3803
2690.0 -10505512.7359
2700.0 -10505523.1019
2710.0 -10505533.4783
2720.0 -10505543.8651
2730.0 -10505554.2622
2740.0 -10505564.6697
2750.0 -10505575.0873
2760.0 -10505585.5153
2770.0 -10505595.9533
2780.0 -10505606.4016
2790.0 -10505616.8599
2800.0 -10505627.3284
2810.0 -10505637.8069
2820.0 -10505648.2953
2830.0 -10505658.7938
2840.0 -10505669.3022
2850.0 -10505679.8205
2860.0 -10505690.3487
2870.0 -10505700.8866
2880.0 -10505711.4344
2890.0 -10505721.992
2900.0 -10505732.5593
2910.0 -10505743.1363
2920.0 -10505753.723
2930.0 -10505764.3192
2940.0 -10505774.9251
2950.0 -10505785.5406
2960.0 -10505796.1656
2970.0 -10505806.8001
2980.0 -10505817.4441
2990.0 -10505828.0975
3000.0 -10505838.7603
3010.0 -10505849.4325
3020.0 -10505860.1141
3030.0 -10505870.805
3040.0 -10505881.5051
